P. F. Liu, N. Abdelmalki, H.-M. Hung, Y. Wang, W. H. Brune and S. T. Martin
Ultraviolet and visible complex refractive indices of secondary organic 
material produced by photooxidation of the aromatic compounds toluene and m-xylene
Atmos. Chem. Phys., 15, 1435-1446, 2015
www.atmos-chem-phys.net/15/1435/2015/
doi:10.5194/acp-15-1435-2015

               Imaginary Refractive Index
SOM:        Toluene-derived       m-Xylene-derived SOM
NO(ppm) 0     2.5    5.0  10.0    0.0     2.5  5.0    10.0
wl(nm) A1     A2     A3     A4     B1     B2    B3     B4
280 0.0262 0.0326 0.0365 0.0400 0.0267 0.0261 0.0268 0.0265
285 0.0241 0.0309 0.0349 0.0387 0.0245 0.0242 0.0250 0.0252
290 0.0217 0.0291 0.0332 0.0373 0.0215 0.0217 0.0226 0.0235
295 0.0193 0.0275 0.0315 0.0361 0.0179 0.0187 0.0197 0.0214
300 0.0171 0.0261 0.0301 0.0351 0.0143 0.0159 0.0169 0.0193
305 0.0153 0.0249 0.0289 0.0343 0.0115 0.0137 0.0147 0.0176
310 0.0137 0.0238 0.0279 0.0337 0.0095 0.0121 0.0131 0.0163
315 0.0124 0.0228 0.0270 0.0333 0.0081 0.0110 0.0120 0.0153
320 0.0114 0.0217 0.0259 0.0327 0.0071 0.0101 0.0112 0.0146
325 0.0104 0.0204 0.0247 0.0320 0.0063 0.0093 0.0104 0.0139
330 0.0094 0.0191 0.0233 0.0312 0.0056 0.0086 0.0097 0.0133
335 0.0086 0.0175 0.0219 0.0302 0.0049 0.0078 0.0089 0.0125
340 0.0077 0.0160 0.0203 0.0290 0.0044 0.0071 0.0082 0.0117
345 0.0069 0.0145 0.0188 0.0277 0.0038 0.0064 0.0074 0.0108
350 0.0062 0.0132 0.0173 0.0263 0.0034 0.0057 0.0066 0.0099
355 0.0055 0.0119 0.0158 0.0247 0.0030 0.0051 0.0059 0.0090
360 0.0050 0.0107 0.0146 0.0234 0.0027 0.0045 0.0053 0.0083
365 0.0044 0.0096 0.0132 0.0219 0.0023 0.0039 0.0047 0.0074
370 0.0039 0.0086 0.0120 0.0206 0.0020 0.0034 0.0041 0.0067
375 0.0035 0.0077 0.0109 0.0195 0.0018 0.0029 0.0037 0.0060
380 0.0031 0.0069 0.0100 0.0187 0.0016 0.0026 0.0032 0.0054
385 0.0027 0.0062 0.0091 0.0178 0.0014 0.0022 0.0028 0.0049
390 0.0024 0.0056 0.0083 0.0169 0.0012 0.0019 0.0025 0.0044
395 0.0022 0.0050 0.0077 0.0163 0.0010 0.0016 0.0021 0.0039
400 0.0020 0.0046 0.0071 0.0158 0.0009 0.0014 0.0018 0.0034
405 0.0017 0.0041 0.0066 0.0153 0.0008 0.0012 0.0016 0.0030
410 0.0016 0.0037 0.0060 0.0144 0.0007 0.0010 0.0014 0.0026
415 0.0014 0.0034 0.0056 0.0139 0.0006 0.0008 0.0012 0.0023
420 0.0013 0.0031 0.0052 0.0134 0.0006 0.0007 0.0010 0.0021
425 0.0012 0.0028 0.0048 0.0129 0.0005 0.0006 0.0008 0.0018
430 0.0011 0.0026 0.0047 0.0126 0.0005 0.0005 0.0007 0.0016
435 0.0010 0.0023 0.0041 0.0116 0.0005 0.0005 0.0006 0.0014
440 0.0010 0.0021 0.0038 0.0113 0.0004 0.0004 0.0005 0.0012
445 0.0009 0.0019 0.0035 0.0107 0.0004 0.0004 0.0004 0.0011
450 0.0008 0.0016 0.0031 0.0098 0.0004 0.0003 0.0004 0.0009
455 0.0008 0.0014 0.0027 0.0089 0.0003 0.0002 0.0003 0.0009
460 0.0008 0.0012 0.0025 0.0081 0.0003 0.0002 0.0002 0.0007
465 0.0008 0.0011 0.0022 0.0075 0.0003 0.0002 0.0002 0.0007
470 0.0007 0.0008 0.0017 0.0063 0.0002 0.0001 0.0002 0.0006
475 0.0007 0.0007 0.0015 0.0059 0.0002 0.0001 0.0001 0.0005
480 0.0007 0.0006 0.0013 0.0054 0.0002 0.0001 0.0001 0.0004
485 0.0007 0.0004 0.0012 0.0053 0.0002 0.0000 0.0002 0.0004
490 0.0006 0.0003 0.0010 0.0045 0.0002 0.0000 0.0000 0.0003
495 0.0005 0.0002 0.0007 0.0039 0.0002 0.0000 0.0000 0.0003
500 0.0006 0.0001 0.0006 0.0034 0.0001 0.0000 0.0000 0.0003
505 0.0005 0.0000 0.0004 0.0029 0.0001 0.0000 0.0000 0.0002
510 0.0005 0.0000 0.0003 0.0023 0.0001 0.0000 0.0000 0.0002
515 0.0004 0.0000 0.0001 0.0017 0.0001 0.0000 0.0000 0.0002
520 0.0004 0.0000 0.0000 0.0013 0.0001 0.0000 0.0000 0.0001
525 0.0004 0.0000 0.0000 0.0010 0.0001 0.0000 0.0000 0.0001
530 0.0003 0.0000 0.0000 0.0008 0.0001 0.0000 0.0000 0.0001
535 0.0003 0.0000 0.0000 0.0007 0.0001 0.0000 0.0000 0.0001
540 0.0004 0.0000 0.0000 0.0005 0.0001 0.0000 0.0000 0.0001
545 0.0003 0.0000 0.0000 0.0004 0.0001 0.0000 0.0000 0.0001
550 0.0003 0.0000 0.0000 0.0004 0.0001 0.0000 0.0000 0.0001
555 0.0003 0.0000 0.0000 0.0004 0.0001 0.0000 0.0000 0.0001
560 0.0003 0.0000 0.0000 0.0003 0.0001 0.0000 0.0000 0.0001

Parameters for Cauchy's equation
 n(lambda(um)) = B + C /lambda**2 + D /lambda**4
for  the wavelength-dependent real refractive index n of toluene- and m-xylene-derived SOMs for several initial NO (ppm)
A1 Toluene 0.0 1.505 7.57e-3 -1.17e-4
A2 Toluene 2.5 1.514 6.87e-3 -1.16e-4
A3 Toluene 5.0 1.513 9.07e-3 -1.72e-4
A4 Toluene 10.0 1.519 1.03e-2 -2.91e-4
B1 m-Xylene 0.0 1.499 4.59e-3 9.84e-5
B2 m-Xylene 2.5 1.500 5.53e-3 3.63e-5
B3 m-Xylene 5.0 1.501 7.77e-3 1.45e-5
B4 m-Xylene 10.0 1.510 1.07e-2 -2.60e-4

!Notes: Below 280 nm, the imaginary part, k, is extrapolted using the angstrom exponent derived from values at 275 and
!280 nm. Above 580 nm, k is set to value at 560 nm, the angstrom exponent is set to zero.
!

Wvl   Tol_A1 Tol_A1 Tol_A2 Tol_A2 Tol_A3 Tol_A3 Tol_A4 Tol_A4 MXy_B1 MXy_B1   MXy_B2  MXy_B2  MXy_B3  MXy_B3  MXy_B4 MXy_B4
(um)     m      k      m      k      m      k      m      k      m      k        m      k         m      k      m      k   
0.210 1.6165 0.1019 1.6101 0.0779 1.6302 0.0756 1.6029 0.0684 1.6537  0.1080  1.6441  0.0892  1.6846  0.0830  1.6189 0.0600
0.220 1.6115 0.0818 1.6064 0.0676 1.6270 0.0672 1.6076 0.0627 1.6358  0.0862  1.6298  0.0731  1.6677  0.0691  1.6201 0.0526
0.230 1.6063 0.0663 1.6024 0.0591 1.6230 0.0601 1.6097 0.0577 1.6209  0.0694  1.6175  0.0605  1.6531  0.0580  1.6194 0.0463
0.240 1.6012 0.0542 1.5983 0.0520 1.6186 0.0539 1.6101 0.0533 1.6083  0.0565  1.6069  0.0504  1.6403  0.0491  1.6174 0.0411
0.250 1.5962 0.0447 1.5942 0.0459 1.6141 0.0486 1.6093 0.0494 1.5976  0.0463  1.5978  0.0423  1.6290  0.0418  1.6146 0.0366
0.260 1.5914 0.0372 1.5902 0.0408 1.6095 0.0440 1.6077 0.0459 1.5884  0.0383  1.5897  0.0358  1.6191  0.0359  1.6114 0.0327
0.270 1.5868 0.0311 1.5864 0.0364 1.6051 0.0400 1.6055 0.0428 1.5805  0.0319  1.5827  0.0305  1.6103  0.0309  1.6079 0.0294
0.280 1.5825 0.0262 1.5828 0.0326 1.6007 0.0365 1.6030 0.0400 1.5736  0.0267  1.5764  0.0261  1.6025  0.0268  1.6042 0.0265
0.285 1.5805 0.0241 1.5810 0.0309 1.5986 0.0349 1.5230 0.0387 1.5704  0.0245  1.5736  0.0242  1.5989  0.0250  1.6023 0.0252
0.290 1.5785 0.0217 1.5793 0.0291 1.5965 0.0332 1.5230 0.0373 1.5675  0.0215  1.5709  0.0217  1.5954  0.0226  1.6005 0.0235
0.295 1.5765 0.0193 1.5776 0.0275 1.5945 0.0315 1.5230 0.0361 1.5647  0.0179  1.5683  0.0187  1.5922  0.0197  1.5986 0.0214
0.300 1.5747 0.0171 1.5760 0.0261 1.5925 0.0301 1.5230 0.0351 1.5621  0.0143  1.5659  0.0159  1.5891  0.0169  1.5968 0.0193
0.305 1.5729 0.0153 1.5744 0.0249 1.5906 0.0289 1.5230 0.0343 1.5597  0.0115  1.5636  0.0137  1.5862  0.0147  1.5950 0.0176
0.310 1.5711 0.0137 1.5729 0.0238 1.5888 0.0279 1.5230 0.0337 1.5574  0.0095  1.5615  0.0121  1.5834  0.0131  1.5932 0.0163
0.315 1.5694 0.0124 1.5715 0.0228 1.5869 0.0270 1.5230 0.0333 1.5553  0.0081  1.5594  0.0110  1.5808  0.0120  1.5914 0.0153
0.320 1.5678 0.0114 1.5700 0.0217 1.5852 0.0259 1.5231 0.0327 1.5532  0.0071  1.5575  0.0101  1.5783  0.0112  1.5897 0.0146
0.325 1.5662 0.0104 1.5686 0.0204 1.5835 0.0247 1.5231 0.0320 1.5513  0.0063  1.5556  0.0093  1.5759  0.0104  1.5880 0.0139
0.330 1.5646 0.0094 1.5673 0.0191 1.5818 0.0233 1.5231 0.0312 1.5494  0.0056  1.5538  0.0086  1.5736  0.0097  1.5863 0.0133
0.335 1.5632 0.0086 1.5660 0.0175 1.5802 0.0219 1.5231 0.0302 1.5477  0.0049  1.5522  0.0078  1.5714  0.0089  1.5847 0.0125
0.340 1.5617 0.0077 1.5647 0.0160 1.5786 0.0203 1.5231 0.0290 1.5461  0.0044  1.5506  0.0071  1.5693  0.0082  1.5831 0.0117
0.345 1.5603 0.0069 1.5635 0.0145 1.5771 0.0188 1.5231 0.0277 1.5445  0.0038  1.5490  0.0064  1.5673  0.0074  1.5815 0.0108
0.350 1.5590 0.0062 1.5624 0.0132 1.5756 0.0173 1.5231 0.0263 1.5430  0.0034  1.5476  0.0057  1.5654  0.0066  1.5800 0.0099
0.355 1.5577 0.0055 1.5612 0.0119 1.5741 0.0158 1.5231 0.0247 1.5416  0.0030  1.5462  0.0051  1.5636  0.0059  1.5785 0.0090
0.360 1.5564 0.0050 1.5601 0.0107 1.5727 0.0146 1.5231 0.0234 1.5403  0.0027  1.5448  0.0045  1.5618  0.0053  1.5771 0.0083
0.365 1.5552 0.0044 1.5590 0.0096 1.5714 0.0132 1.5231 0.0219 1.5390  0.0023  1.5436  0.0039  1.5601  0.0047  1.5757 0.0074
0.370 1.5541 0.0039 1.5580 0.0086 1.5701 0.0120 1.5231 0.0206 1.5378  0.0020  1.5423  0.0034  1.5585  0.0041  1.5743 0.0067
0.375 1.5529 0.0035 1.5570 0.0077 1.5688 0.0109 1.5231 0.0195 1.5366  0.0018  1.5412  0.0029  1.5570  0.0037  1.5729 0.0060
0.380 1.5518 0.0031 1.5560 0.0069 1.5676 0.0100 1.5231 0.0187 1.5355  0.0016  1.5400  0.0026  1.5555  0.0032  1.5716 0.0054
0.385 1.5507 0.0027 1.5551 0.0062 1.5664 0.0091 1.5231 0.0178 1.5344  0.0014  1.5390  0.0022  1.5541  0.0028  1.5704 0.0049
0.390 1.5497 0.0024 1.5542 0.0056 1.5652 0.0083 1.5232 0.0169 1.5334  0.0012  1.5379  0.0019  1.5527  0.0025  1.5691 0.0044
0.395 1.5487 0.0022 1.5533 0.0050 1.5641 0.0077 1.5232 0.0163 1.5325  0.0010  1.5369  0.0016  1.5514  0.0021  1.5679 0.0039
0.400 1.5477 0.0020 1.5524 0.0046 1.5630 0.0071 1.5232 0.0158 1.5315  0.0009  1.5360  0.0014  1.5501  0.0018  1.5667 0.0034
0.405 1.5468 0.0017 1.5516 0.0041 1.5619 0.0066 1.5232 0.0153 1.5306  0.0008  1.5351  0.0012  1.5489  0.0016  1.5656 0.0030
0.410 1.5459 0.0016 1.5508 0.0037 1.5609 0.0060 1.5232 0.0144 1.5298  0.0007  1.5342  0.0010  1.5477  0.0014  1.5645 0.0026
0.415 1.5450 0.0014 1.5500 0.0034 1.5599 0.0056 1.5232 0.0139 1.5290  0.0006  1.5333  0.0008  1.5466  0.0012  1.5634 0.0023
0.420 1.5442 0.0013 1.5492 0.0031 1.5589 0.0052 1.5232 0.0134 1.5282  0.0006  1.5325  0.0007  1.5455  0.0010  1.5623 0.0021
0.425 1.5433 0.0012 1.5485 0.0028 1.5579 0.0048 1.5232 0.0129 1.5274  0.0005  1.5317  0.0006  1.5445  0.0008  1.5613 0.0018
0.430 1.5425 0.0011 1.5478 0.0026 1.5570 0.0047 1.5232 0.0126 1.5267  0.0005  1.5310  0.0005  1.5434  0.0007  1.5603 0.0016
0.435 1.5417 0.0010 1.5471 0.0023 1.5561 0.0041 1.5232 0.0116 1.5260  0.0005  1.5302  0.0005  1.5425  0.0006  1.5593 0.0014
0.440 1.5410 0.0010 1.5464 0.0021 1.5553 0.0038 1.5232 0.0113 1.5253  0.0004  1.5295  0.0004  1.5415  0.0005  1.5583 0.0012
0.445 1.5402 0.0009 1.5457 0.0019 1.5544 0.0035 1.5232 0.0107 1.5247  0.0004  1.5289  0.0004  1.5406  0.0004  1.5574 0.0011
0.450 1.5395 0.0008 1.5451 0.0016 1.5536 0.0031 1.5232 0.0098 1.5241  0.0004  1.5282  0.0003  1.5397  0.0004  1.5565 0.0009
0.455 1.5388 0.0008 1.5445 0.0014 1.5528 0.0027 1.5232 0.0089 1.5235  0.0003  1.5276  0.0002  1.5389  0.0003  1.5556 0.0009
0.460 1.5382 0.0008 1.5439 0.0012 1.5520 0.0025 1.5232 0.0081 1.5229  0.0003  1.5269  0.0002  1.5380  0.0002  1.5548 0.0007
0.465 1.5375 0.0008 1.5433 0.0011 1.5513 0.0022 1.5232 0.0075 1.5223  0.0003  1.5264  0.0002  1.5372  0.0002  1.5539 0.0007
0.470 1.5369 0.0007 1.5427 0.0008 1.5505 0.0017 1.5232 0.0063 1.5218  0.0002  1.5258  0.0001  1.5365  0.0002  1.5531 0.0006
0.475 1.5363 0.0007 1.5422 0.0007 1.5498 0.0015 1.5232 0.0059 1.5213  0.0002  1.5252  0.0001  1.5357  0.0001  1.5523 0.0005
0.480 1.5357 0.0007 1.5416 0.0006 1.5491 0.0013 1.5232 0.0054 1.5208  0.0002  1.5247  0.0001  1.5350  0.0001  1.5515 0.0004
0.485 1.5351 0.0007 1.5411 0.0004 1.5485 0.0012 1.5232 0.0053 1.5203  0.0002  1.5242  0.0000  1.5343  0.0002  1.5508 0.0004
0.490 1.5345 0.0006 1.5406 0.0003 1.5478 0.0010 1.5232 0.0045 1.5198  0.0002  1.5237  0.0000  1.5336  0.0000  1.5501 0.0003
0.495 1.5339 0.0005 1.5401 0.0002 1.5472 0.0007 1.5233 0.0039 1.5194  0.0002  1.5232  0.0000  1.5330  0.0000  1.5493 0.0003
0.500 1.5334 0.0006 1.5396 0.0001 1.5465 0.0006 1.5233 0.0034 1.5189  0.0001  1.5227  0.0000  1.5323  0.0000  1.5486 0.0003
0.505 1.5329 0.0005 1.5392 0.0000 1.5459 0.0004 1.5233 0.0029 1.5185  0.0001  1.5222  0.0000  1.5317  0.0000  1.5480 0.0002
0.510 1.5324 0.0005 1.5387 0.0000 1.5453 0.0003 1.5233 0.0023 1.5181  0.0001  1.5218  0.0000  1.5311  0.0000  1.5473 0.0002
0.515 1.5319 0.0004 1.5383 0.0000 1.5448 0.0001 1.5233 0.0017 1.5177  0.0001  1.5214  0.0000  1.5305  0.0000  1.5466 0.0002
0.520 1.5314 0.0004 1.5378 0.0000 1.5442 0.0000 1.5233 0.0013 1.5173  0.0001  1.5209  0.0000  1.5299  0.0000  1.5460 0.0001
0.525 1.5309 0.0004 1.5374 0.0000 1.5436 0.0000 1.5233 0.0010 1.5169  0.0001  1.5205  0.0000  1.5294  0.0000  1.5454 0.0001
0.530 1.5305 0.0003 1.5370 0.0000 1.5431 0.0000 1.5233 0.0008 1.5166  0.0001  1.5201  0.0000  1.5288  0.0000  1.5448 0.0001
0.535 1.5300 0.0003 1.5366 0.0000 1.5426 0.0000 1.5233 0.0007 1.5162  0.0001  1.5198  0.0000  1.5283  0.0000  1.5442 0.0001
0.540 1.5296 0.0004 1.5362 0.0000 1.5421 0.0000 1.5233 0.0005 1.5159  0.0001  1.5194  0.0000  1.5278  0.0000  1.5436 0.0001
0.545 1.5292 0.0003 1.5358 0.0000 1.5416 0.0000 1.5233 0.0004 1.5156  0.0001  1.5190  0.0000  1.5273  0.0000  1.5431 0.0001
0.550 1.5287 0.0003 1.5354 0.0000 1.5411 0.0000 1.5233 0.0004 1.5152  0.0001  1.5187  0.0000  1.5268  0.0000  1.5425 0.0001
0.555 1.5283 0.0003 1.5351 0.0000 1.5406 0.0000 1.5233 0.0004 1.5149  0.0001  1.5183  0.0000  1.5264  0.0000  1.5420 0.0001
0.560 1.5279 0.0003 1.5347 0.0000 1.5402 0.0000 1.5233 0.0003 1.5146  0.0001  1.5180  0.0000  1.5259  0.0000  1.5415 0.0001
0.565 1.5276 0.0003 1.5344 0.0000 1.5397 0.0000 1.5233 0.0003 1.5143  0.0001  1.5177  0.0000  1.5255  0.0000  1.5410 0.0001
0.570 1.5272 0.0003 1.5340 0.0000 1.5393 0.0000 1.5233 0.0003 1.5141  0.0001  1.5174  0.0000  1.5251  0.0000  1.5405 0.0001
0.575 1.5268 0.0003 1.5337 0.0000 1.5389 0.0000 1.5233 0.0003 1.5138  0.0001  1.5171  0.0000  1.5246  0.0000  1.5400 0.0001
0.580 1.5265 0.0003 1.5334 0.0000 1.5384 0.0000 1.5233 0.0003 1.5135  0.0001  1.5168  0.0000  1.5242  0.0000  1.5395 0.0001
0.585 1.5261 0.0003 1.5331 0.0000 1.5380 0.0000 1.5233 0.0003 1.5133  0.0001  1.5165  0.0000  1.5238  0.0000  1.5390 0.0001
0.590 1.5258 0.0003 1.5328 0.0000 1.5376 0.0000 1.5233 0.0003 1.5130  0.0001  1.5162  0.0000  1.5234  0.0000  1.5386 0.0001
0.595 1.5254 0.0003 1.5325 0.0000 1.5372 0.0000 1.5233 0.0003 1.5128  0.0001  1.5159  0.0000  1.5231  0.0000  1.5381 0.0001
0.600 1.5251 0.0003 1.5322 0.0000 1.5369 0.0000 1.5233 0.0003 1.5125  0.0001  1.5156  0.0000  1.5227  0.0000  1.5377 0.0001
0.605 1.5248 0.0003 1.5319 0.0000 1.5365 0.0000 1.5233 0.0003 1.5123  0.0001  1.5154  0.0000  1.5223  0.0000  1.5373 0.0001
0.610 1.5245 0.0003 1.5316 0.0000 1.5361 0.0000 1.5233 0.0003 1.5120  0.0001  1.5151  0.0000  1.5220  0.0000  1.5369 0.0001
0.615 1.5242 0.0003 1.5314 0.0000 1.5358 0.0000 1.5233 0.0003 1.5118  0.0001  1.5149  0.0000  1.5216  0.0000  1.5365 0.0001
0.620 1.5239 0.0003 1.5311 0.0000 1.5354 0.0000 1.5233 0.0003 1.5116  0.0001  1.5146  0.0000  1.5213  0.0000  1.5361 0.0001
0.625 1.5236 0.0003 1.5308 0.0000 1.5351 0.0000 1.5233 0.0003 1.5114  0.0001  1.5144  0.0000  1.5210  0.0000  1.5357 0.0001
0.630 1.5233 0.0003 1.5306 0.0000 1.5348 0.0000 1.5233 0.0003 1.5112  0.0001  1.5142  0.0000  1.5207  0.0000  1.5353 0.0001
0.635 1.5231 0.0003 1.5303 0.0000 1.5344 0.0000 1.5233 0.0003 1.5110  0.0001  1.5139  0.0000  1.5204  0.0000  1.5349 0.0001
0.640 1.5228 0.0003 1.5301 0.0000 1.5341 0.0000 1.5233 0.0003 1.5108  0.0001  1.5137  0.0000  1.5201  0.0000  1.5346 0.0001
0.645 1.5225 0.0003 1.5298 0.0000 1.5338 0.0000 1.5233 0.0003 1.5106  0.0001  1.5135  0.0000  1.5198  0.0000  1.5342 0.0001
0.650 1.5223 0.0003 1.5296 0.0000 1.5335 0.0000 1.5233 0.0003 1.5104  0.0001  1.5133  0.0000  1.5195  0.0000  1.5339 0.0001
0.655 1.5220 0.0003 1.5294 0.0000 1.5332 0.0000 1.5233 0.0003 1.5102  0.0001  1.5131  0.0000  1.5192  0.0000  1.5335 0.0001
0.660 1.5218 0.0003 1.5292 0.0000 1.5329 0.0000 1.5233 0.0003 1.5101  0.0001  1.5129  0.0000  1.5189  0.0000  1.5332 0.0001
0.665 1.5215 0.0003 1.5289 0.0000 1.5326 0.0000 1.5233 0.0003 1.5099  0.0001  1.5127  0.0000  1.5186  0.0000  1.5329 0.0001
0.670 1.5213 0.0003 1.5287 0.0000 1.5324 0.0000 1.5233 0.0003 1.5097  0.0001  1.5125  0.0000  1.5184  0.0000  1.5325 0.0001
0.675 1.5211 0.0003 1.5285 0.0000 1.5321 0.0000 1.5233 0.0003 1.5095  0.0001  1.5123  0.0000  1.5181  0.0000  1.5322 0.0001
0.680 1.5208 0.0003 1.5283 0.0000 1.5318 0.0000 1.5233 0.0003 1.5094  0.0001  1.5121  0.0000  1.5179  0.0000  1.5319 0.0001
0.685 1.5206 0.0003 1.5281 0.0000 1.5315 0.0000 1.5233 0.0003 1.5092  0.0001  1.5120  0.0000  1.5176  0.0000  1.5316 0.0001
0.690 1.5204 0.0003 1.5279 0.0000 1.5313 0.0000 1.5233 0.0003 1.5091  0.0001  1.5118  0.0000  1.5174  0.0000  1.5313 0.0001
0.695 1.5202 0.0003 1.5277 0.0000 1.5310 0.0000 1.5233 0.0003 1.5089  0.0001  1.5116  0.0000  1.5171  0.0000  1.5310 0.0001
0.700 1.5200 0.0003 1.5275 0.0000 1.5308 0.0000 1.5233 0.0003 1.5088  0.0001  1.5114  0.0000  1.5169  0.0000  1.5308 0.0001
0.705 1.5198 0.0003 1.5274 0.0000 1.5306 0.0000 1.5233 0.0003 1.5086  0.0001  1.5113  0.0000  1.5167  0.0000  1.5305 0.0001
0.710 1.5196 0.0003 1.5272 0.0000 1.5303 0.0000 1.5233 0.0003 1.5085  0.0001  1.5111  0.0000  1.5165  0.0000  1.5302 0.0001
0.715 1.5194 0.0003 1.5270 0.0000 1.5301 0.0000 1.5233 0.0003 1.5084  0.0001  1.5110  0.0000  1.5163  0.0000  1.5299 0.0001
0.720 1.5192 0.0003 1.5268 0.0000 1.5299 0.0000 1.5233 0.0003 1.5082  0.0001  1.5108  0.0000  1.5160  0.0000  1.5297 0.0001
0.725 1.5190 0.0003 1.5267 0.0000 1.5296 0.0000 1.5233 0.0003 1.5081  0.0001  1.5107  0.0000  1.5158  0.0000  1.5294 0.0001
0.730 1.5188 0.0003 1.5265 0.0000 1.5294 0.0000 1.5234 0.0003 1.5080  0.0001  1.5105  0.0000  1.5156  0.0000  1.5292 0.0001
0.735 1.5186 0.0003 1.5263 0.0000 1.5292 0.0000 1.5234 0.0003 1.5078  0.0001  1.5104  0.0000  1.5154  0.0000  1.5289 0.0001
0.740 1.5184 0.0003 1.5262 0.0000 1.5290 0.0000 1.5234 0.0003 1.5077  0.0001  1.5102  0.0000  1.5152  0.0000  1.5287 0.0001
0.745 1.5183 0.0003 1.5260 0.0000 1.5288 0.0000 1.5234 0.0003 1.5076  0.0001  1.5101  0.0000  1.5150  0.0000  1.5284 0.0001
0.750 1.5181 0.0003 1.5258 0.0000 1.5286 0.0000 1.5234 0.0003 1.5075  0.0001  1.5099  0.0000  1.5149  0.0000  1.5282 0.0001
0.755 1.5179 0.0003 1.5257 0.0000 1.5284 0.0000 1.5234 0.0003 1.5074  0.0001  1.5098  0.0000  1.5147  0.0000  1.5280 0.0001
0.760 1.5178 0.0003 1.5255 0.0000 1.5282 0.0000 1.5234 0.0003 1.5072  0.0001  1.5097  0.0000  1.5145  0.0000  1.5277 0.0001
0.765 1.5176 0.0003 1.5254 0.0000 1.5280 0.0000 1.5234 0.0003 1.5071  0.0001  1.5096  0.0000  1.5143  0.0000  1.5275 0.0001
0.770 1.5174 0.0003 1.5253 0.0000 1.5278 0.0000 1.5234 0.0003 1.5070  0.0001  1.5094  0.0000  1.5141  0.0000  1.5273 0.0001
0.775 1.5173 0.0003 1.5251 0.0000 1.5276 0.0000 1.5234 0.0003 1.5069  0.0001  1.5093  0.0000  1.5140  0.0000  1.5271 0.0001
0.780 1.5171 0.0003 1.5250 0.0000 1.5274 0.0000 1.5234 0.0003 1.5068  0.0001  1.5092  0.0000  1.5138  0.0000  1.5269 0.0001
0.785 1.5170 0.0003 1.5248 0.0000 1.5273 0.0000 1.5234 0.0003 1.5067  0.0001  1.5091  0.0000  1.5136  0.0000  1.5267 0.0001
0.790 1.5168 0.0003 1.5247 0.0000 1.5271 0.0000 1.5234 0.0003 1.5066  0.0001  1.5090  0.0000  1.5135  0.0000  1.5265 0.0001
0.795 1.5167 0.0003 1.5246 0.0000 1.5269 0.0000 1.5234 0.0003 1.5065  0.0001  1.5088  0.0000  1.5133  0.0000  1.5263 0.0001
0.800 1.5165 0.0003 1.5245 0.0000 1.5268 0.0000 1.5234 0.0003 1.5064  0.0001  1.5087  0.0000  1.5132  0.0000  1.5261 0.0001
0.805 1.5164 0.0003 1.5243 0.0000 1.5266 0.0000 1.5234 0.0003 1.5063  0.0001  1.5086  0.0000  1.5130  0.0000  1.5259 0.0001
0.810 1.5163 0.0003 1.5242 0.0000 1.5264 0.0000 1.5234 0.0003 1.5062  0.0001  1.5085  0.0000  1.5129  0.0000  1.5257 0.0001
0.815 1.5161 0.0003 1.5241 0.0000 1.5263 0.0000 1.5234 0.0003 1.5061  0.0001  1.5084  0.0000  1.5127  0.0000  1.5255 0.0001
0.820 1.5160 0.0003 1.5240 0.0000 1.5261 0.0000 1.5234 0.0003 1.5060  0.0001  1.5083  0.0000  1.5126  0.0000  1.5253 0.0001
0.825 1.5159 0.0003 1.5238 0.0000 1.5260 0.0000 1.5234 0.0003 1.5060  0.0001  1.5082  0.0000  1.5124  0.0000  1.5252 0.0001
0.830 1.5157 0.0003 1.5237 0.0000 1.5258 0.0000 1.5234 0.0003 1.5059  0.0001  1.5081  0.0000  1.5123  0.0000  1.5250 0.0001
0.835 1.5156 0.0003 1.5236 0.0000 1.5257 0.0000 1.5234 0.0003 1.5058  0.0001  1.5080  0.0000  1.5122  0.0000  1.5248 0.0001
0.840 1.5155 0.0003 1.5235 0.0000 1.5255 0.0000 1.5234 0.0003 1.5057  0.0001  1.5079  0.0000  1.5120  0.0000  1.5246 0.0001
0.845 1.5154 0.0003 1.5234 0.0000 1.5254 0.0000 1.5234 0.0003 1.5056  0.0001  1.5078  0.0000  1.5119  0.0000  1.5245 0.0001
0.850 1.5153 0.0003 1.5233 0.0000 1.5252 0.0000 1.5234 0.0003 1.5055  0.0001  1.5077  0.0000  1.5118  0.0000  1.5243 0.0001
0.855 1.5151 0.0003 1.5232 0.0000 1.5251 0.0000 1.5234 0.0003 1.5055  0.0001  1.5076  0.0000  1.5117  0.0000  1.5242 0.0001
0.860 1.5150 0.0003 1.5231 0.0000 1.5249 0.0000 1.5234 0.0003 1.5054  0.0001  1.5075  0.0000  1.5115  0.0000  1.5240 0.0001
0.865 1.5149 0.0003 1.5230 0.0000 1.5248 0.0000 1.5234 0.0003 1.5053  0.0001  1.5075  0.0000  1.5114  0.0000  1.5238 0.0001
0.870 1.5148 0.0003 1.5229 0.0000 1.5247 0.0000 1.5234 0.0003 1.5052  0.0001  1.5074  0.0000  1.5113  0.0000  1.5237 0.0001
0.875 1.5147 0.0003 1.5228 0.0000 1.5246 0.0000 1.5234 0.0003 1.5052  0.0001  1.5073  0.0000  1.5112  0.0000  1.5235 0.0001
0.880 1.5146 0.0003 1.5227 0.0000 1.5244 0.0000 1.5234 0.0003 1.5051  0.0001  1.5072  0.0000  1.5111  0.0000  1.5234 0.0001
0.885 1.5145 0.0003 1.5226 0.0000 1.5243 0.0000 1.5234 0.0003 1.5050  0.0001  1.5071  0.0000  1.5109  0.0000  1.5232 0.0001
0.890 1.5144 0.0003 1.5225 0.0000 1.5242 0.0000 1.5234 0.0003 1.5050  0.0001  1.5070  0.0000  1.5108  0.0000  1.5231 0.0001
0.895 1.5143 0.0003 1.5224 0.0000 1.5241 0.0000 1.5234 0.0003 1.5049  0.0001  1.5070  0.0000  1.5107  0.0000  1.5230 0.0001
0.900 1.5142 0.0003 1.5223 0.0000 1.5239 0.0000 1.5234 0.0003 1.5048  0.0001  1.5069  0.0000  1.5106  0.0000  1.5228 0.0001
0.905 1.5141 0.0003 1.5222 0.0000 1.5238 0.0000 1.5234 0.0003 1.5048  0.0001  1.5068  0.0000  1.5105  0.0000  1.5227 0.0001
0.910 1.5140 0.0003 1.5221 0.0000 1.5237 0.0000 1.5234 0.0003 1.5047  0.0001  1.5067  0.0000  1.5104  0.0000  1.5225 0.0001
0.915 1.5139 0.0003 1.5220 0.0000 1.5236 0.0000 1.5234 0.0003 1.5046  0.0001  1.5067  0.0000  1.5103  0.0000  1.5224 0.0001
0.920 1.5138 0.0003 1.5220 0.0000 1.5235 0.0000 1.5234 0.0003 1.5046  0.0001  1.5066  0.0000  1.5102  0.0000  1.5223 0.0001
0.925 1.5137 0.0003 1.5219 0.0000 1.5234 0.0000 1.5234 0.0003 1.5045  0.0001  1.5065  0.0000  1.5101  0.0000  1.5222 0.0001
0.930 1.5136 0.0003 1.5218 0.0000 1.5233 0.0000 1.5234 0.0003 1.5044  0.0001  1.5064  0.0000  1.5100  0.0000  1.5220 0.0001
0.935 1.5135 0.0003 1.5217 0.0000 1.5231 0.0000 1.5234 0.0003 1.5044  0.0001  1.5064  0.0000  1.5099  0.0000  1.5219 0.0001
0.940 1.5134 0.0003 1.5216 0.0000 1.5230 0.0000 1.5234 0.0003 1.5043  0.0001  1.5063  0.0000  1.5098  0.0000  1.5218 0.0001
0.945 1.5133 0.0003 1.5215 0.0000 1.5229 0.0000 1.5234 0.0003 1.5043  0.0001  1.5062  0.0000  1.5097  0.0000  1.5217 0.0001
0.950 1.5132 0.0003 1.5215 0.0000 1.5228 0.0000 1.5234 0.0003 1.5042  0.0001  1.5062  0.0000  1.5096  0.0000  1.5215 0.0001
0.955 1.5132 0.0003 1.5214 0.0000 1.5227 0.0000 1.5234 0.0003 1.5042  0.0001  1.5061  0.0000  1.5095  0.0000  1.5214 0.0001
0.960 1.5131 0.0003 1.5213 0.0000 1.5226 0.0000 1.5234 0.0003 1.5041  0.0001  1.5060  0.0000  1.5094  0.0000  1.5213 0.0001
0.965 1.5130 0.0003 1.5212 0.0000 1.5225 0.0000 1.5234 0.0003 1.5040  0.0001  1.5060  0.0000  1.5094  0.0000  1.5212 0.0001
0.970 1.5129 0.0003 1.5212 0.0000 1.5224 0.0000 1.5234 0.0003 1.5040  0.0001  1.5059  0.0000  1.5093  0.0000  1.5211 0.0001
0.975 1.5128 0.0003 1.5211 0.0000 1.5224 0.0000 1.5234 0.0003 1.5039  0.0001  1.5059  0.0000  1.5092  0.0000  1.5210 0.0001





















































































































































