ISOP_SULF_SOA
!Complex Refractive Index for Secondary Organic Aerosol from Isoprene 
!based on chamber cases with (1) isoprene, ozone, SO2 and (5) isoprene, ozone, and NOx
! 
!as described in 
!   Tomoki Nakayama, Kei Sato, Takashi Imamura, and Yutaka Matsumi (2018).
!   Effect of Oxidation Process on Complex Refractive Index of Secondary Organic Aerosol Generated from Isoprene.
!   Environmental Science & Technology 2018 52 (5), 2566-2574. DOI: 10.1021/acs.est.7b05852
!
! real part calculated using a polynominal fit (Cauchy's Equation) based on observed 
! in Table S5 of Nakayama et al. (2018) supporting info. 
!
! Cauchy's equation m = a + b*wave^-2 + c*wave^-4, wave in nm
! For case, isoprene/O3/SO2: a = 1.360, b =  2.62E+04, c = -1.29E+09
! for case, isoprene/O3/NOx: a = 1.417, b = -6.78E+03, c =  2.05E+09
!
! imaginary part for k_so2 was calculated using the Angstrom exponents between the observed data values 
!
!Wave Interval, nm Angstrom Exponent
! 210 to 300        0.000
! 300 to 375       14.680
! 375 to 405       14.680
! 405 to 532        3.106
! 532 to 860        3.747
!
! Note that values held constant below 300 nm because the shortest wavelength on data in 375 nm.
!wl,um m_so2 k_so2 
0.150 1.488 0.0133 
0.210 1.488 0.0133 
0.215 1.488 0.0133 
0.220 1.488 0.0133 
0.225 1.488 0.0133 
0.230 1.488 0.0133 
0.235 1.488 0.0133 
0.240 1.488 0.0133 
0.245 1.488 0.0133 
0.250 1.488 0.0133 
0.255 1.488 0.0133 
0.260 1.488 0.0133 
0.265 1.488 0.0133 
0.270 1.488 0.0133 
0.275 1.488 0.0133 
0.280 1.488 0.0133 
0.285 1.488 0.0133 
0.290 1.488 0.0133 
0.295 1.488 0.0133 
0.300 1.488 0.0133 
0.305 1.489 0.0133 
0.310 1.490 0.0133 
0.315 1.490 0.0133 
0.320 1.489 0.0133 
0.325 1.489 0.0133 
0.330 1.488 0.0133 
0.335 1.488 0.0133 
0.340 1.487 0.0133 
0.345 1.486 0.0133 
0.350 1.485 0.0133 
0.355 1.483 0.0133 
0.360 1.482 0.0133 
0.365 1.481 0.0133 
0.370 1.479 0.0133 
0.375 1.478 0.0130 
0.380 1.476 0.0126 
0.385 1.475 0.0120 
0.390 1.473 0.0115 
0.395 1.472 0.0111 
0.400 1.470 0.0106 
0.405 1.469 0.0042 
0.410 1.467 0.0040 
0.415 1.465 0.0039 
0.420 1.464 0.0037 
0.425 1.462 0.0036 
0.430 1.461 0.0034 
0.435 1.459 0.0033 
0.440 1.458 0.0032 
0.445 1.456 0.0031 
0.450 1.455 0.0030 
0.455 1.453 0.0028 
0.460 1.452 0.0027 
0.465 1.450 0.0026 
0.470 1.449 0.0026 
0.475 1.448 0.0025 
0.480 1.446 0.0024 
0.485 1.445 0.0023 
0.490 1.444 0.0022 
0.495 1.442 0.0022 
0.500 1.441 0.0021 
0.505 1.440 0.0020 
0.510 1.439 0.0019 
0.515 1.437 0.0019 
0.520 1.436 0.0018 
0.525 1.435 0.0018 
0.530 1.434 0.0017 
0.535 1.433 0.0018 
0.540 1.432 0.0017 
0.545 1.430 0.0016 
0.550 1.429 0.0016 
0.555 1.428 0.0015 
0.560 1.427 0.0015 
0.565 1.426 0.0014 
0.570 1.425 0.0014 
0.575 1.424 0.0013 
0.580 1.423 0.0013 
0.585 1.422 0.0013 
0.590 1.422 0.0012 
0.595 1.421 0.0012 
0.600 1.420 0.0011 
0.605 1.419 0.0011 
0.610 1.418 0.0011 
0.615 1.417 0.0010 
0.620 1.416 0.0010 
0.625 1.416 0.0010 
0.630 1.415 0.0010 
0.635 1.414 0.0009 
0.640 1.413 0.0009 
0.645 1.412 0.0009 
0.650 1.412 0.0008 
0.655 1.411 0.0008 
0.660 1.410 0.0008 
0.665 1.410 0.0008 
0.670 1.409 0.0008 
0.675 1.408 0.0007 
0.680 1.408 0.0007 
0.685 1.407 0.0007 
0.690 1.406 0.0007 
0.695 1.406 0.0007 
0.700 1.405 0.0006 
0.705 1.404 0.0006 
0.710 1.404 0.0006 
0.715 1.403 0.0006 
0.720 1.403 0.0006 
0.725 1.402 0.0006 
0.730 1.402 0.0005 
0.735 1.401 0.0005 
0.740 1.401 0.0005 
0.745 1.400 0.0005 
0.750 1.399 0.0005 
0.755 1.399 0.0005 
0.760 1.398 0.0005 
0.765 1.398 0.0005 
0.770 1.397 0.0005 
0.775 1.397 0.0004 
0.780 1.397 0.0004 
0.785 1.396 0.0005 
0.790 1.396 0.0005 
0.795 1.395 0.0005 
0.800 1.395 0.0005 
0.805 1.394 0.0005 
0.810 1.394 0.0005 
0.815 1.393 0.0005 
0.820 1.393 0.0005 
0.825 1.393 0.0005 
0.830 1.392 0.0005 
0.835 1.392 0.0005 
0.840 1.392 0.0005 
0.845 1.391 0.0005 
0.850 1.391 0.0005 
0.855 1.390 0.0005 
0.860 1.390 0.0005 



































































































































